周波数 (Hz)	レベル (dB)
86.132813	-56.743214
172.265625	-53.690022
258.398438	-52.513313
344.531250	-53.301914
430.664063	-55.763756
516.796875	-58.112545
602.929688	-55.728325
689.062500	-57.244999
775.195313	-60.187469
861.328125	-59.155598
947.460938	-56.326591
1033.593750	-58.706947
1119.726563	-56.701790
1205.859375	-58.228447
1291.992188	-57.168533
1378.125000	-55.675377
1464.257813	-59.878258
1550.390625	-60.460148
1636.523438	-57.672482
1722.656250	-54.206543
1808.789063	-53.916859
1894.921875	-54.925446
1981.054688	-54.603207
2067.187500	-56.358665
2153.320313	-54.597530
2239.453125	-50.914021
2325.585938	-52.635998
2411.718750	-55.487961
2497.851563	-55.260567
2583.984375	-53.416325
2670.117188	-55.732899
2756.250000	-55.649940
2842.382813	-55.713654
2928.515625	-55.212238
3014.648438	-58.097607
3100.781250	-54.404282
3186.914063	-51.901836
3273.046875	-49.541824
3359.179688	-49.776382
3445.312500	-51.920887
3531.445313	-51.731239
3617.578125	-51.468616
3703.710938	-55.281483
3789.843750	-53.808567
3875.976563	-53.362045
3962.109375	-53.455200
4048.242188	-53.563725
4134.375000	-54.745758
4220.507813	-56.557064
4306.640625	-60.488514
4392.773438	-63.201450
4478.906250	-62.099155
4565.039063	-57.618103
4651.171875	-59.735798
4737.304688	-61.928299
4823.437500	-59.224091
4909.570313	-60.496181
4995.703125	-65.666405
5081.835938	-65.072708
5167.968750	-61.957367
5254.101563	-65.574554
5340.234375	-63.852051
5426.367188	-62.367340
5512.500000	-63.877308
5598.632813	-68.490410
5684.765625	-68.812042
5770.898438	-65.876930
5857.031250	-65.153496
5943.164063	-65.156395
6029.296875	-66.774284
6115.429688	-71.151917
6201.562500	-69.677895
6287.695313	-70.582962
6373.828125	-72.095688
6459.960938	-70.916946
6546.093750	-72.576256
6632.226563	-73.996292
6718.359375	-74.444977
6804.492188	-74.402451
6890.625000	-78.139931
6976.757813	-78.416069
7062.890625	-77.205963
7149.023438	-77.582207
7235.156250	-81.382629
7321.289063	-76.320824
7407.421875	-74.787209
7493.554688	-77.339012
7579.687500	-75.578018
7665.820313	-73.331398
7751.953125	-75.625679
7838.085938	-80.234390
7924.218750	-81.886581
8010.351563	-79.945198
8096.484375	-81.330177
8182.617188	-83.679413
8268.750000	-79.418915
8354.882813	-81.525566
8441.015625	-86.149376
8527.148438	-83.473770
8613.281250	-80.075050
8699.414063	-81.756767
8785.546875	-81.584045
8871.679688	-81.451599
8957.812500	-78.650383
9043.945313	-81.041924
9130.078125	-83.682693
9216.210938	-82.044403
9302.343750	-79.320633
9388.476563	-81.293335
9474.609375	-79.192558
9560.742188	-79.090065
9646.875000	-79.727249
9733.007813	-77.667351
9819.140625	-77.687675
9905.273438	-78.559410
9991.406250	-83.621849
10077.539063	-83.872742
10163.671875	-82.809662
10249.804688	-86.977463
10335.937500	-87.103012
10422.070313	-85.921341
10508.203125	-89.066414
10594.335938	-88.732628
10680.468750	-92.252396
10766.601563	-89.616409
10852.734375	-87.537758
10938.867188	-89.012627
11025.000000	-89.995140
11111.132813	-90.239151
11197.265625	-88.965393
11283.398438	-86.685799
11369.531250	-86.221703
11455.664063	-83.278320
11541.796875	-84.889198
11627.929688	-86.592728
11714.062500	-84.795830
11800.195313	-85.709465
11886.328125	-85.352768
11972.460938	-83.427521
12058.593750	-84.026649
12144.726563	-83.885956
12230.859375	-82.392006
12316.992188	-83.329529
12403.125000	-80.985489
12489.257813	-80.120789
12575.390625	-80.506584
12661.523438	-84.793861
12747.656250	-86.288574
12833.789063	-85.861824
12919.921875	-85.062355
13006.054688	-83.798210
13092.187500	-83.732811
13178.320313	-87.679420
13264.453125	-86.020813
13350.585938	-83.773811
13436.718750	-88.733765
13522.851563	-88.719193
13608.984375	-88.482079
13695.117188	-91.259354
13781.250000	-95.135612
13867.382813	-92.988876
13953.515625	-91.042580
14039.648438	-92.661919
14125.781250	-93.813927
14211.914063	-92.307045
14298.046875	-94.851776
14384.179688	-97.528221
14470.312500	-94.375504
14556.445313	-93.592628
14642.578125	-95.926605
14728.710938	-91.950378
14814.843750	-91.966599
14900.976563	-93.841850
14987.109375	-96.876022
15073.242188	-97.165627
15159.375000	-99.076378
15245.507813	-96.335381
15331.640625	-95.053787
15417.773438	-93.162720
15503.906250	-94.680183
15590.039063	-95.203575
15676.171875	-95.817802
15762.304688	-94.439400
15848.437500	-96.459579
15934.570313	-99.455872
16020.703125	-98.181244
16106.835938	-99.029610
16192.968750	-102.440826
16279.101563	-99.955696
16365.234375	-99.785072
16451.367188	-101.787750
16537.500000	-103.756546
16623.632813	-103.840569
16709.765625	-104.059555
16795.898438	-107.418510
16882.031250	-106.887436
16968.164063	-106.407387
17054.296875	-100.514221
17140.429688	-97.839409
17226.562500	-99.964798
17312.695313	-103.797440
17398.828125	-105.503593
17484.960938	-105.073669
17571.093750	-104.542328
17657.226563	-102.154137
17743.359375	-101.671761
17829.492188	-105.921356
17915.625000	-101.579033
18001.757813	-98.389122
18087.890625	-96.821106
18174.023438	-98.251472
18260.156250	-97.216553
18346.289063	-97.154602
18432.421875	-97.912514
18518.554688	-100.266762
18604.687500	-104.188347
18690.820313	-104.435066
18776.953125	-104.673515
18863.085938	-107.249794
18949.218750	-112.445335
19035.351563	-114.152267
19121.484375	-113.589973
19207.617188	-111.824707
19293.750000	-109.751640
19379.882813	-110.611732
19466.015625	-113.024101
19552.148438	-112.649361
19638.281250	-112.125084
19724.414063	-113.964767
19810.546875	-113.851021
19896.679688	-112.182251
19982.812500	-112.898926
20068.945313	-113.829079
20155.078125	-114.887390
20241.210938	-116.072136
20327.343750	-114.993538
20413.476563	-115.749847
20499.609375	-118.540100
20585.742188	-119.787621
20671.875000	-118.205238
20758.007813	-118.682938
20844.140625	-119.032410
20930.273438	-118.694160
21016.406250	-119.189255
21102.539063	-118.916916
21188.671875	-119.179062
21274.804688	-118.822670
21360.937500	-119.330360
21447.070313	-118.870087
21533.203125	-119.110008
21619.335938	-119.249947
21705.468750	-119.033073
21791.601563	-119.153221
21877.734375	-119.114159
21963.867188	-118.803261
周波数 (Hz)	レベル (dB)
86.132813	-57.409523
172.265625	-54.063038
258.398438	-53.195351
344.531250	-54.050766
430.664063	-56.623138
516.796875	-58.935413
602.929688	-56.436298
689.062500	-57.999191
775.195313	-60.661385
861.328125	-59.593441
947.460938	-56.872845
1033.593750	-59.485306
1119.726563	-57.357246
1205.859375	-58.722641
1291.992188	-57.581886
1378.125000	-56.036179
1464.257813	-60.285103
1550.390625	-60.462349
1636.523438	-57.746666
1722.656250	-54.395744
1808.789063	-54.183716
1894.921875	-55.323868
1981.054688	-54.711365
2067.187500	-56.455688
2153.320313	-54.611191
2239.453125	-50.888454
2325.585938	-52.393276
2411.718750	-55.363735
2497.851563	-55.067852
2583.984375	-53.249928
2670.117188	-55.815945
2756.250000	-55.558800
2842.382813	-55.424332
2928.515625	-54.784969
3014.648438	-57.458160
3100.781250	-53.862087
3186.914063	-51.296349
3273.046875	-49.053947
3359.179688	-49.564716
3445.312500	-51.671783
3531.445313	-51.185658
3617.578125	-50.966362
3703.710938	-54.775757
3789.843750	-53.507183
3875.976563	-52.987854
3962.109375	-53.005341
4048.242188	-52.882973
4134.375000	-54.090797
4220.507813	-55.957306
4306.640625	-59.701351
4392.773438	-62.150280
4478.906250	-60.787205
4565.039063	-56.741779
4651.171875	-58.919529
4737.304688	-61.753994
4823.437500	-58.448013
4909.570313	-59.424038
4995.703125	-63.873966
5081.835938	-63.532295
5167.968750	-61.278770
5254.101563	-64.841881
5340.234375	-63.118248
5426.367188	-61.309872
5512.500000	-62.990604
5598.632813	-67.317657
5684.765625	-68.057373
5770.898438	-65.083557
5857.031250	-64.312149
5943.164063	-64.226753
6029.296875	-65.818756
6115.429688	-70.242050
6201.562500	-69.154144
6287.695313	-70.225113
6373.828125	-71.646255
6459.960938	-70.464066
6546.093750	-71.928764
6632.226563	-73.421509
6718.359375	-74.003059
6804.492188	-73.977737
6890.625000	-77.055870
6976.757813	-76.989349
7062.890625	-76.269768
7149.023438	-77.103584
7235.156250	-81.026466
7321.289063	-75.469727
7407.421875	-74.146622
7493.554688	-76.821648
7579.687500	-74.840904
7665.820313	-72.546349
7751.953125	-74.461876
7838.085938	-78.843697
7924.218750	-80.560036
8010.351563	-79.225563
8096.484375	-80.506271
8182.617188	-82.190079
8268.750000	-78.368423
8354.882813	-80.464783
8441.015625	-84.841393
8527.148438	-82.172447
8613.281250	-79.037048
8699.414063	-80.515396
8785.546875	-80.759789
8871.679688	-80.343010
8957.812500	-77.857811
9043.945313	-80.110161
9130.078125	-82.520691
9216.210938	-80.786751
9302.343750	-78.431534
9388.476563	-80.137703
9474.609375	-77.921593
9560.742188	-78.045334
9646.875000	-78.308548
9733.007813	-76.247025
9819.140625	-76.073730
9905.273438	-77.671524
9991.406250	-82.444305
10077.539063	-82.548630
10163.671875	-81.520187
10249.804688	-84.791969
10335.937500	-85.208572
10422.070313	-84.998878
10508.203125	-88.110603
10594.335938	-86.318130
10680.468750	-89.665909
10766.601563	-88.186394
10852.734375	-85.441399
10938.867188	-86.461258
11025.000000	-87.586235
11111.132813	-87.762787
11197.265625	-86.078964
11283.398438	-83.658913
11369.531250	-83.997215
11455.664063	-81.022896
11541.796875	-82.228226
11627.929688	-83.782990
11714.062500	-82.052803
11800.195313	-82.484634
11886.328125	-82.090744
11972.460938	-80.434998
12058.593750	-81.695061
12144.726563	-80.808647
12230.859375	-79.289696
12316.992188	-80.577644
12403.125000	-78.358589
12489.257813	-77.496651
12575.390625	-77.806213
12661.523438	-82.002762
12747.656250	-82.399834
12833.789063	-82.826797
12919.921875	-82.348656
13006.054688	-80.617676
13092.187500	-80.925858
13178.320313	-84.991890
13264.453125	-83.415390
13350.585938	-81.173134
13436.718750	-86.038765
13522.851563	-85.733086
13608.984375	-85.682304
13695.117188	-88.428444
13781.250000	-92.107658
13867.382813	-90.502655
13953.515625	-88.259224
14039.648438	-89.917572
14125.781250	-90.857697
14211.914063	-89.032097
14298.046875	-91.561806
14384.179688	-95.487602
14470.312500	-92.219841
14556.445313	-90.876686
14642.578125	-93.393425
14728.710938	-89.454559
14814.843750	-89.235886
14900.976563	-91.254074
14987.109375	-93.415771
15073.242188	-94.161224
15159.375000	-96.253548
15245.507813	-93.864799
15331.640625	-92.142097
15417.773438	-90.295418
15503.906250	-91.652763
15590.039063	-92.344940
15676.171875	-92.852913
15762.304688	-91.496124
15848.437500	-94.148323
15934.570313	-96.381287
16020.703125	-95.299217
16106.835938	-96.029144
16192.968750	-99.400032
16279.101563	-97.123955
16365.234375	-96.584633
16451.367188	-98.702286
16537.500000	-101.378059
16623.632813	-100.324081
16709.765625	-101.428116
16795.898438	-105.219780
16882.031250	-103.703621
16968.164063	-102.389130
17054.296875	-96.999680
17140.429688	-94.866035
17226.562500	-97.123543
17312.695313	-101.676926
17398.828125	-102.607735
17484.960938	-101.439095
17571.093750	-102.953789
17657.226563	-99.303406
17743.359375	-98.871536
17829.492188	-102.930443
17915.625000	-98.542488
18001.757813	-95.500427
18087.890625	-93.840813
18174.023438	-95.271736
18260.156250	-94.639305
18346.289063	-94.211304
18432.421875	-94.860390
18518.554688	-97.587311
18604.687500	-101.689728
18690.820313	-101.760498
18776.953125	-102.208084
18863.085938	-105.370171
18949.218750	-110.938148
19035.351563	-111.123230
19121.484375	-112.030060
19207.617188	-110.005493
19293.750000	-107.252449
19379.882813	-107.536026
19466.015625	-111.731972
19552.148438	-111.728378
19638.281250	-110.434219
19724.414063	-111.079437
19810.546875	-112.183174
19896.679688	-111.431412
19982.812500	-111.367973
20068.945313	-112.267578
20155.078125	-113.898079
20241.210938	-115.523964
20327.343750	-114.709236
20413.476563	-116.775307
20499.609375	-122.112747
20585.742188	-125.975418
20671.875000	-124.549126
20758.007813	-126.313049
20844.140625	-127.210342
20930.273438	-126.429817
21016.406250	-126.584991
21102.539063	-127.624084
21188.671875	-128.340851
21274.804688	-128.099625
21360.937500	-127.401489
21447.070313	-126.663498
21533.203125	-126.622360
21619.335938	-127.333153
21705.468750	-127.387718
21791.601563	-127.624741
21877.734375	-127.686180
21963.867188	-127.642479
